Data from Reflection_17.txt Node
Date: Thu Oct 13 17:31:07 CEST 2022
User: Ocean Optics
Spectrometer: QEP02356
Trigger mode: 4
Integration Time (sec): 1.900000E0
Scans to average: 1
Electric dark correction enabled: true
Nonlinearity correction enabled: true
Boxcar width: 0
XAxis mode: Wavelengths
Number of Pixels in Spectrum: 1044
>>>>>Begin Spectral Data<<<<<
194.596	-69.56512314
195.4	55.1723391
196.203	41.02560828
197.007	-0
197.81	54.22809892
198.613	53.94018651
199.417	53.45072505
200.22	44.91351249
201.023	53.59510405
201.826	54.45142012
202.629	51.05356035
203.432	46.74407536
204.235	49.1090037
205.038	49.69744505
205.84	48.91651587
206.643	47.99151649
207.445	55.12046737
208.248	53.2114536
209.05	49.9734167
209.853	50.20119135
210.655	49.281888
211.457	52.86109288
212.259	50.60282385
213.061	54.21021764
213.863	51.42729691
214.665	54.40978524
215.467	49.60261546
216.269	47.83845265
217.07	56.694551
217.872	56.39118698
218.674	54.19367996
219.475	51.11391154
220.277	56.8588474
221.078	51.68343095
221.879	51.74287393
222.68	55.78300861
223.481	48.25148821
224.283	51.11391201
225.084	54.8816434
225.884	54.36653424
226.685	52.91279141
227.486	51.66920052
228.287	52.49510154
229.087	45.39469109
229.888	51.68343105
230.688	51.81201468
231.489	51.72762297
232.289	51.71263513
233.089	57.67904324
233.89	49.52322014
234.69	50.18312907
235.49	48.93896098
236.29	52.33406832
237.09	46.95907757
237.89	54.0498786
238.689	51.69790794
239.489	52.73954815
240.289	50.8085515
241.088	53.19197473
241.888	52.11055249
242.687	50.19591181
243.486	49.52750212
244.286	46.16446063
245.085	49.74716694
245.884	45.12552385
246.683	55.42457791
247.482	44.61287211
248.281	44.51876898
249.08	47.88064274
249.878	48.1042394
250.677	43.63783045
251.476	45.94581308
252.274	46.05163319
253.073	37.16388688
253.871	38.28597811
254.67	42.35717552
255.468	41.43954003
256.266	37.42299776
257.064	44.7863816
257.862	41.89409338
258.66	40.46451393
259.458	37.05191715
260.256	34.44642008
261.054	34.82333694
261.851	37.12213298
262.649	38.74669286
263.446	36.59962466
264.244	31.44997353
265.041	36.11702306
265.839	33.88886169
266.636	33.18123837
267.433	34.75028354
268.23	30.75599573
269.027	29.42209755
269.824	29.68685324
270.621	27.88747607
271.418	30.06047594
272.215	27.04483283
273.011	27.26290478
273.808	26.74631519
274.604	26.76072542
275.401	25.98571482
276.197	22.28238039
276.994	24.20970987
277.79	23.57111793
278.586	23.81614287
279.382	21.10076205
280.178	19.4735126
280.974	19.60884322
281.77	19.07368189
282.566	17.39757598
283.361	17.89317351
284.157	14.39929379
284.953	14.7861017
285.748	14.54295506
286.544	13.07733615
287.339	13.80601114
288.134	13.07605618
288.93	11.72348714
289.725	10.57322075
290.52	10.52082067
291.315	10.13993044
292.11	9.33572371
292.905	8.89614436
293.699	8.45443852
294.494	9.16688912
295.289	8.25331796
296.083	7.99506538
296.878	7.74101442
297.672	7.9762853
298.467	7.705925
299.261	7.48572416
300.055	7.28983974
300.849	7.44796393
301.643	7.32371796
302.437	7.2957492
303.231	7.71818191
304.025	7.68054093
304.819	7.61129455
305.612	7.29990777
306.406	7.58319374
307.2	7.27197511
307.993	7.23333758
308.786	7.15963955
309.58	7.1567999
310.373	7.05398543
311.166	7.09993657
311.959	6.75263994
312.752	6.93998714
313.545	6.92352192
314.338	6.7645567
315.131	7.03259997
315.924	6.78083272
316.716	6.80340401
317.509	6.64162126
318.302	6.59752555
319.094	6.72700003
319.886	6.44158755
320.679	6.58270528
321.471	6.47044881
322.263	6.46382353
323.055	6.45857128
323.847	6.5274557
324.639	6.50710121
325.431	6.53042055
326.223	6.28773826
327.015	6.48873192
327.806	6.53666065
328.598	6.35716602
329.389	6.16921282
330.181	6.28615198
330.972	6.37746
331.763	6.34496184
332.555	6.21792428
333.346	6.24082976
334.137	6.2857533
334.928	6.11653314
335.719	6.25987077
336.51	6.32858734
337.3	6.34589757
338.091	6.27638964
338.882	6.15659853
339.672	6.3745206
340.463	6.19496664
341.253	6.20363055
342.043	6.25028621
342.834	6.21263842
343.624	6.26693138
344.414	6.35153046
345.204	6.46767615
345.994	6.34886598
346.784	6.34736609
347.574	6.32775396
348.363	6.55521681
349.153	6.51220142
349.943	6.58080893
350.732	6.61599458
351.521	6.66584582
352.311	6.72183087
353.1	6.75800563
353.889	6.86202263
354.678	6.89634333
355.468	7.06966661
356.257	7.21380065
357.045	7.28454226
357.834	7.34230237
358.623	7.43648769
359.412	7.45626801
360.2	7.72573871
360.989	7.88554835
361.777	7.75986368
362.566	7.94201504
363.354	8.18341856
364.142	8.19383886
364.931	8.25737192
365.719	8.56226462
366.507	8.71979205
367.295	8.88821491
368.083	9.20506745
368.87	9.20960729
369.658	9.47129175
370.446	9.69587372
371.233	9.81895574
372.021	9.97255947
372.808	10.12619764
373.596	10.52449602
374.383	10.70128243
375.17	10.86666386
375.957	11.37624992
376.745	11.5867952
377.532	11.88430425
378.318	12.12181353
379.105	12.53518491
379.892	12.76954986
380.679	13.06691203
381.465	13.38925937
382.252	13.97496825
383.038	14.33251331
383.825	14.78888808
384.611	15.19094414
385.397	15.77149044
386.184	16.34821751
386.97	17.14187828
387.756	17.70271152
388.542	18.57828642
389.328	19.28849354
390.113	20.02696238
390.899	21.11334873
391.685	22.24824286
392.47	23.26383096
393.256	24.38947883
394.041	25.35179261
394.827	26.83471534
395.612	28.0154953
396.397	29.29161227
397.182	30.63971631
397.967	32.06199331
398.752	33.47894112
399.537	34.83834817
400.322	36.41692753
401.107	37.51277709
401.891	39.23377826
402.676	40.65703211
403.461	41.777259
404.245	43.36861398
405.029	44.58471242
405.814	45.51195603
406.598	46.63049077
407.382	47.63200326
408.166	48.4946384
408.95	49.24150894
409.734	49.74241562
410.518	50.48648442
411.302	50.99802427
412.086	51.77397509
412.869	51.72774138
413.653	52.36290457
414.436	52.83832066
415.22	52.90330791
416.003	53.07527457
416.786	53.2384073
417.569	53.66648961
418.353	53.7410106
419.136	53.51463124
419.919	53.89751034
420.701	53.89115779
421.484	54.01122074
422.267	53.9256323
423.05	54.08468915
423.832	54.19822954
424.615	53.92979877
425.397	54.18823001
426.18	54.13712374
426.962	54.21086321
427.744	54.17192379
428.526	54.30597956
429.308	54.32415389
430.09	54.5215089
430.872	54.54560858
431.654	54.58940173
432.436	55.00536181
433.217	54.65609284
433.999	54.70807964
434.781	54.63828735
435.562	54.67273878
436.343	54.82734983
437.125	54.95160113
437.906	55.03485576
438.687	54.86246509
439.468	55.07575933
440.249	55.10110598
441.03	55.0168694
441.811	55.00579842
442.592	55.08733569
443.372	55.19379179
444.153	54.93412907
444.934	55.04068663
445.714	55.18655896
446.494	55.22095299
447.275	55.15188634
448.055	55.35941832
448.835	55.12644093
449.615	55.12938478
450.395	55.2717176
451.175	55.30373523
451.955	54.98919071
452.735	55.27548876
453.515	55.24897781
454.294	55.31072093
455.074	55.26747254
455.853	55.31754988
456.633	55.38552115
457.412	55.24291499
458.191	55.37059016
458.971	55.31811282
459.75	55.53233381
460.529	55.28002078
461.308	55.33022695
462.087	55.34791424
462.865	55.31961119
463.644	55.21160543
464.423	55.10368729
465.201	55.10986873
465.98	55.05755231
466.758	55.22910523
467.537	55.3779612
468.315	55.23387738
469.093	55.15997704
469.871	55.1217423
470.649	55.10951825
471.427	55.20493864
472.205	55.26728283
472.983	55.37839219
473.761	55.24914885
474.538	55.31412928
475.316	55.28912471
476.093	55.24707058
476.871	55.3689677
477.648	55.25996725
478.426	55.36145875
479.203	55.27350204
479.98	55.26647083
480.757	55.29246282
481.534	55.36352685
482.311	55.36383713
483.088	55.30564855
483.864	55.40776203
484.641	55.26176549
485.418	55.17068211
486.194	55.24632566
486.971	55.20989942
487.747	55.30328559
488.523	55.3138755
489.3	55.45279412
490.076	55.13720697
490.852	55.22490974
491.628	55.20515666
492.404	55.48706149
493.179	55.09698353
493.955	55.26261659
494.731	55.03381591
495.506	55.44184264
496.282	55.46099138
497.057	55.36922941
497.833	55.36179617
498.608	55.28000752
499.383	55.34071454
500.159	55.46413349
500.934	55.40502437
501.709	55.58026473
502.483	55.41262072
503.258	55.34539696
504.033	55.41652056
504.808	55.57274104
505.582	55.42905996
506.357	55.41126783
507.131	55.67886032
507.906	55.53660977
508.68	55.98742858
509.454	55.66438227
510.228	55.61796057
511.002	55.48035614
511.776	55.84850463
512.55	55.60603251
513.324	55.83000755
514.098	55.67671873
514.872	55.72014732
515.645	55.75357517
516.419	55.54122422
517.192	55.75828751
517.966	55.78905965
518.739	55.83771759
519.512	55.95866804
520.285	55.81261047
521.058	55.82263148
521.831	55.66547583
522.604	55.7029582
523.377	55.84382167
524.15	55.64386333
524.923	55.60215685
525.695	55.63866801
526.468	55.87152231
527.24	55.74546814
528.012	55.66419094
528.785	55.5843632
529.557	55.82917048
530.329	55.43217541
531.101	55.65659553
531.873	55.85859993
532.645	55.70639519
533.417	55.57131901
534.189	55.66666336
534.96	55.69885056
535.732	55.76109111
536.503	55.67455711
537.275	55.73282557
538.046	55.66680392
538.818	55.62708637
539.589	55.63516608
540.36	55.74701776
541.131	55.81332014
541.902	55.73490421
542.673	55.92979536
543.444	55.85853792
544.214	56.06143057
544.985	55.77001624
545.756	55.69511976
546.526	55.79005451
547.297	55.91449523
548.067	56.06479729
548.837	56.04754941
549.608	55.94003856
550.378	55.94195944
551.148	56.15380734
551.918	56.16831692
552.688	56.08159024
553.457	56.04395193
554.227	56.0858931
554.997	56.12528031
555.766	56.17872283
556.536	56.12618866
557.305	56.29305055
558.075	56.32433713
558.844	56.51211342
559.613	56.49939235
560.382	56.28885536
561.151	56.48457835
561.92	56.38688199
562.689	56.51646845
563.458	56.46232037
564.227	56.65105642
564.995	56.54328862
565.764	56.70637946
566.532	56.76088203
567.301	56.79387801
568.069	56.63016536
568.837	56.5982926
569.606	56.6457608
570.374	56.63673727
571.142	56.7214606
571.91	56.5980559
572.678	56.62575964
573.445	56.41391459
574.213	56.5145526
574.981	56.53913699
575.748	56.62696386
576.516	56.63946361
577.283	56.62112377
578.05	56.51152902
578.818	56.51787122
579.585	56.69151432
580.352	56.45923959
581.119	56.71519202
581.886	56.39989006
582.653	56.58827622
583.419	56.46234985
584.186	56.41912784
584.953	56.54233286
585.719	56.57264715
586.486	56.42196685
587.252	56.62558986
588.018	56.6082089
588.785	56.53803107
589.551	56.61890399
590.317	56.54028978
591.083	56.44098566
591.849	56.50952082
592.615	56.43370542
593.38	56.63895472
594.146	56.63121507
594.912	56.49225867
595.677	56.58533093
596.443	56.64430179
597.208	56.48045974
597.973	56.44412956
598.738	56.5013018
599.504	56.70575896
600.269	56.4122271
601.034	56.52063531
601.798	56.33861291
602.563	56.32362596
603.328	56.40262205
604.093	56.50400775
604.857	56.42825491
605.622	56.22343985
606.386	56.28558892
607.151	56.42357883
607.915	56.36134078
608.679	56.33616304
609.443	56.2205621
610.207	56.44047122
610.971	56.35698339
611.735	56.43826649
612.499	56.47142741
613.262	56.4398459
614.026	56.39256091
614.79	56.32422769
615.553	56.26097025
616.316	56.34391761
617.08	56.44742766
617.843	56.23490777
618.606	56.35208431
619.369	56.23349531
620.132	56.31061355
620.895	56.30691434
621.658	56.12565183
622.421	56.12527983
623.183	56.29962127
623.946	56.27428747
624.709	56.18935027
625.471	56.18449378
626.233	56.24494361
626.996	56.18660819
627.758	56.09760845
628.52	56.0650697
629.282	56.10970174
630.044	56.24584628
630.806	56.18791076
631.568	56.26784655
632.329	56.35138758
633.091	56.25962012
633.853	56.34674611
634.614	56.2323406
635.376	56.33483202
636.137	56.3100322
636.898	56.24516152
637.659	56.33606781
638.42	56.04843685
639.181	56.25254198
639.942	56.28618286
640.703	56.46994075
641.464	56.30677876
642.225	56.24184972
642.985	56.63102715
643.746	56.30617578
644.506	56.38473266
645.267	56.44511556
646.027	56.45713487
646.787	56.41869151
647.547	56.47520658
648.307	56.51055857
649.067	56.65467699
649.827	56.46467846
650.587	56.5969302
651.347	56.53321694
652.106	56.42616266
652.866	56.31710984
653.626	56.57845729
654.385	56.61358988
655.144	56.7726179
655.904	56.6080659
656.663	56.55324387
657.422	56.47047351
658.181	56.57439321
658.94	56.50725551
659.699	56.53008268
660.458	56.48275135
661.216	56.54574828
661.975	56.72673205
662.733	56.60990263
663.492	56.5061463
664.25	56.48839922
665.009	56.49657782
665.767	56.44146842
666.525	56.56135357
667.283	56.77745822
668.041	56.61292622
668.799	56.66239823
669.557	56.61148316
670.314	56.65412691
671.072	56.41648854
671.83	56.32739441
672.587	56.48140544
673.345	56.66875075
674.102	56.60572384
674.859	56.65105153
675.616	56.82114042
676.374	56.75065345
677.131	56.75548476
677.888	56.7441306
678.644	56.66367796
679.401	56.57096819
680.158	56.54228569
680.914	56.48756883
681.671	56.68304926
682.428	56.55612227
683.184	56.71399493
683.94	56.69539721
684.696	56.62404235
685.453	56.57502355
686.209	56.51533203
686.965	56.6425831
687.721	56.51273222
688.476	56.78710201
689.232	56.75895588
689.988	56.83299509
690.743	56.82110777
691.499	56.90205298
692.254	56.90613779
693.01	56.8929001
693.765	56.75745833
694.52	56.91935916
695.275	56.83903709
696.03	56.82409657
696.785	57.05236021
697.54	56.90553619
698.295	56.88950859
699.049	56.90437254
699.804	56.83036083
700.559	56.8379049
701.313	56.60606121
702.067	56.9120229
702.822	56.96412242
703.576	56.91128932
704.33	56.84302327
705.084	57.06806251
705.838	56.89958848
706.592	57.05952087
707.346	57.17446052
708.099	57.07227977
708.853	57.25481067
709.607	57.19274553
710.36	57.23846421
711.113	57.21026919
711.867	57.22333526
712.62	57.05139673
713.373	57.16260293
714.126	57.19696187
714.879	57.30051073
715.632	56.94428442
716.385	57.03228754
717.138	57.16192593
717.89	57.16070008
718.643	57.29679807
719.396	57.24619718
720.148	57.29046223
720.9	57.26577755
721.653	57.26148718
722.405	57.24046259
723.157	57.33146864
723.909	57.28027898
724.661	57.39864788
725.413	57.44575246
726.165	57.59188739
726.916	57.68472725
727.668	57.59083479
728.419	57.63095827
729.171	57.26256475
729.922	57.4483971
730.673	57.51009608
731.425	57.65287046
732.176	57.51244434
732.927	57.48822706
733.678	57.56785094
734.429	57.54070911
735.18	57.35738
735.93	57.56933496
736.681	57.43000607
737.431	57.36003916
738.182	57.53341554
738.932	57.74894141
739.683	57.7364823
740.433	57.79395041
741.183	57.70400715
741.933	57.68363125
742.683	57.79614346
743.433	57.65895502
744.183	57.69598243
744.933	57.85658813
745.682	57.84932759
746.432	57.42314699
747.181	57.58467625
747.931	57.58320261
748.68	57.79488019
749.429	57.66108582
750.179	57.5982401
750.928	57.90107664
751.677	57.793698
752.426	57.9361789
753.174	57.80156902
753.923	57.78683976
754.672	57.85968296
755.42	57.76566356
756.169	57.90850888
756.917	58.1604776
757.666	57.89087978
758.414	57.85142707
759.162	57.89981719
759.91	58.17138576
760.658	58.04738802
761.406	58.22948318
762.154	58.22433784
762.902	58.02417873
763.65	58.14878945
764.397	58.09537026
765.145	58.39945602
765.892	58.15402186
766.64	57.98854967
767.387	57.98329971
768.134	57.86998216
768.881	58.02367973
769.628	58.30190081
770.375	57.9196791
771.122	57.81407815
771.869	57.6393033
772.616	58.24365085
773.362	58.0735252
774.109	58.41280828
774.855	58.59419221
775.602	58.26109526
776.348	57.90555311
777.094	57.88530421
777.841	58.417111
778.587	58.46012993
779.333	58.47297847
780.078	58.20888952
780.824	58.36137731
781.57	58.54825969
782.316	57.97598211
783.061	58.24513645
783.807	57.71201899
784.552	57.61782439
785.297	57.8053418
786.043	57.72997494
786.788	58.19078064
787.533	57.89157197
788.278	58.18877387
789.023	57.97940067
789.768	57.90186826
790.512	57.61138956
791.257	58.49972638
792.002	57.64722109
792.746	57.65672408
793.491	57.31781998
794.235	57.96430665
794.979	58.08527934
795.723	57.93984043
796.467	58.38761813
797.211	57.88500764
797.955	58.52556891
798.699	58.32824657
799.443	58.25329469
800.187	57.97277044
800.93	58.44858327
801.674	58.48514241
802.417	58.95846441
803.16	58.44196836
803.904	58.94959107
804.647	58.40568577
805.39	58.88626143
806.133	58.39501851
806.876	58.46477108
807.619	58.81294353
808.361	58.68260111
809.104	58.35437505
809.847	57.75090868
810.589	58.34538619
811.332	57.76650574
812.074	57.91209106
812.816	57.53832002
813.558	57.5980584
814.301	58.26218463
815.043	58.71004629
815.784	58.37166767
816.526	58.74288085
817.268	58.72519328
818.01	58.19153162
818.751	58.38375454
819.493	58.86512384
820.234	58.2674683
820.976	58.99565428
821.717	58.11036212
822.458	58.71277677
823.199	58.8226306
823.94	58.67960879
824.681	58.43994995
825.422	58.13489859
826.163	58.02642678
826.903	58.09330118
827.644	58.7500821
828.385	58.9052259
829.125	58.51292984
829.865	58.41504762
830.606	58.56835646
831.346	57.87599142
832.086	59.06717986
832.826	57.92713567
833.566	58.82709838
834.306	58.76892754
835.046	58.20815888
835.785	58.52952002
836.525	58.22588956
837.264	58.18786901
838.004	58.16655968
838.743	57.68763701
839.482	57.39578424
840.222	58.30044896
840.961	58.96305224
841.7	59.20741145
842.439	57.69085898
843.177	58.9111563
843.916	58.96241661
844.655	59.13000211
845.394	59.29040704
846.132	58.29124105
846.87	57.28255549
847.609	59.50843649
848.347	59.20690578
849.085	58.4817181
849.823	59.4901989
850.561	58.86388113
851.299	59.31557003
852.037	59.37453233
852.775	58.67968285
853.513	58.05586543
854.25	57.4646242
854.988	58.58578569
855.725	57.32757735
856.462	57.26337253
857.2	60.62816548
857.937	58.9551285
858.674	59.51994963
859.411	59.59989299
860.148	58.16776996
860.885	58.38874979
861.622	58.92529146
862.358	58.44961727
863.095	60.63599594
863.831	60.52501491
864.568	58.64879761
865.304	59.25344303
866.04	58.46768709
866.776	58.59089086
867.513	58.32318631
868.249	58.77859187
868.984	58.37787525
869.72	58.22748555
870.456	57.95541327
871.192	58.5588594
871.927	58.94462329
872.663	60.04582727
873.398	58.34666539
874.134	59.47841711
874.869	58.33273633
875.604	59.10234388
876.339	58.75877896
877.074	58.84774169
877.809	59.13926315
878.544	60.02126963
879.278	59.05882663
880.013	59.43138309
880.748	59.28973534
881.482	58.98721696
882.217	59.13382293
882.951	59.08637738
883.685	58.85084706
884.419	58.64373154
885.153	58.91243437
885.887	58.69533327
886.621	59.24895756
887.355	58.65127642
888.089	58.54729329
888.822	58.42953794
889.556	58.06279021
890.289	59.10417743
891.023	58.28018399
891.756	58.77115926
892.489	59.47611674
893.222	58.83996692
893.955	58.83755015
894.688	59.60769881
895.421	59.02431975
896.154	59.2423239
896.887	59.07749976
897.619	58.88939167
898.352	58.6271804
899.084	59.12767212
899.817	58.80618496
900.549	58.77792304
901.281	58.71867837
902.013	59.05388681
902.745	59.33456884
903.477	59.19858044
904.209	59.54332052
904.941	59.71088035
905.673	59.44002066
906.404	59.24822091
907.136	58.86772857
907.867	59.0242618
908.599	58.64115278
909.33	58.39012771
910.061	58.50050397
910.792	58.83675265
911.523	59.11670142
912.254	58.38347327
912.985	59.40427099
913.716	59.19700718
914.446	58.87558975
915.177	59.49192695
915.908	58.90527545
916.638	58.99099036
917.368	59.26495275
918.099	58.67011111
918.829	59.19979252
919.559	59.05016187
920.289	58.49622474
921.019	58.50411456
921.748	58.54303532
922.478	59.17719249
923.208	59.31136676
923.937	58.72203405
924.667	58.83594628
925.396	59.27820764
926.126	58.70301342
926.855	58.77817577
927.584	59.52061286
928.313	59.20227588
929.042	58.63212156
929.771	59.39193823
930.5	59.54014906
931.228	59.31145733
931.957	60.29854456
932.686	59.00992151
933.414	60.02766943
934.142	59.70455486
934.871	59.36723986
935.599	60.41653738
936.327	59.5091306
937.055	59.46443611
937.783	59.17451048
938.511	59.95689165
939.239	58.97170368
939.966	59.66460522
940.694	58.99005454
941.421	59.72856069
942.149	59.4874936
942.876	59.61057805
943.603	59.33448969
944.331	58.98139073
945.058	58.92890195
945.785	59.17874965
946.512	59.12209528
947.239	59.24310129
947.965	58.86061084
948.692	58.88616227
949.418	59.53360758
950.145	58.94327049
950.871	59.12457498
951.598	59.08233669
952.324	59.12967074
953.05	59.42987269
953.776	59.16772017
954.502	58.95195459
955.228	59.70527588
955.954	59.32359334
956.68	59.62916444
957.405	59.98970696
958.131	59.70912199
958.856	59.3993292
959.582	59.60019288
960.307	59.69580407
961.032	60.21588173
961.757	59.32308957
962.482	58.959518
963.207	59.42879937
963.932	59.32442872
964.657	59.96421622
965.381	59.89885517
966.106	59.96387698
966.831	59.03231721
967.555	59.41935323
968.279	59.49081334
969.004	59.52428363
969.728	59.93830532
970.452	59.66614402
971.176	59.40894516
971.9	59.68278326
972.624	59.16145149
973.347	59.09410239
974.071	59.56841039
974.794	59.74339531
975.518	58.93329038
976.241	59.74369745
976.965	59.30736671
977.688	59.45041892
978.411	59.67290778
979.134	59.96050612
979.857	59.84255608
980.58	59.53661642
981.303	59.33446209
982.025	59.24897172
982.748	59.12329241
983.471	59.57303227
984.193	59.34453483
984.915	59.34938159
985.638	59.63941876
986.36	59.82785779
987.082	59.76776445
987.804	59.56855831
988.526	59.18063631
989.248	70.79654128
989.969	0
990.691	58.5366199
991.413	373.33386448
